File: raman/raman_data/MoSSe/x0.000y0.280.csv
100.978, 22.1732
105.372, 22.1507
109.764, 22.5108
114.157, 22.5783
118.551, 22.5783
122.945, 22.5783
127.339, 22.5783
131.733, 22.5783
136.127, 22.5783
140.521, 22.6908
144.913, 23.0283
149.307, 23.0283
153.701, 23.0283
158.095, 23.0283
162.489, 23.0283
166.883, 23.0283
171.277, 23.0283
175.671, 23.0283
180.065, 23.0283
184.459, 23.0958
188.853, 23.0508
193.247, 23.1184
197.64, 23.2084
202.035, 23.1634
206.428, 23.2534
210.822, 23.2534
215.216, 23.2534
219.61, 23.2534
224.004, 23.2534
228.398, 23.2534
232.792, 23.2534
237.186, 23.2534
241.58, 23.2534
245.974, 23.2534
250.367, 23.4559
254.76, 23.7034
259.152, 24.086
263.542, 24.7386
269.077, 26.0606
274.999, 25.303
277.96, 24.8485
282.878, 24.311
287.275, 23.8834
291.67, 23.7034
296.064, 23.7034
300.457, 23.8834
304.85, 23.951
309.246, 23.7709
313.641, 23.5909
318.036, 23.4109
322.428, 23.7034
326.822, 23.7034
331.216, 23.7034
335.609, 23.9285
340.002, 24.1535
344.395, 24.311
348.787, 24.6035
353.176, 25.4361
357.568, 25.8637
361.961, 25.9537
366.355, 25.9537
370.308, 26.2069
373.379, 27.0507
374.983, 28.0303
377.345, 28.7879
380.406, 27.6414
382.169, 26.7038
386.13, 25.7287
390.087, 25.2111
394.48, 25.4361
396.452, 26.2912
398.158, 27.6639
399.907, 29.0816
402.189, 30.1515
404.993, 31.0168
406.333, 29.8485
406.931, 28.7879
407.945, 27.1914
410.737, 25.588
414.698, 24.6035
419.094, 24.2435
423.488, 24.1535
427.882, 24.1535
432.276, 24.1535
436.671, 24.0185
441.067, 23.7034
445.461, 23.7034
449.855, 23.7034
454.25, 23.5909
458.646, 23.2534
463.04, 23.2534
467.434, 23.2534
471.827, 23.4334
476.22, 23.6809
480.614, 23.5909
485.007, 23.7034
489.402, 23.7034
493.796, 23.7034
497.309, 24.0035