File: raman/raman_data/MoSSe/x0.000y0.520.csv
100.789, 54.0372
105.181, 54.3747
109.572, 54.8248
113.963, 55.4324
118.356, 55.6124
122.75, 55.6349
127.144, 55.5449
131.537, 55.8149
135.931, 55.8149
140.324, 55.9724
144.719, 55.8149
149.112, 56.0175
153.506, 55.9499
157.901, 55.8149
162.293, 56.1525
166.686, 56.355
171.079, 56.4225
175.472, 56.67
179.866, 56.67
184.261, 56.4675
188.657, 56.22
193.051, 56.22
197.445, 56.22
201.837, 56.58
206.227, 57.2776
208.857, 58.339
212.992, 59.6115
215.618, 60.7576
217.982, 61.2121
220.708, 60.5236
222.032, 59.5729
224.323, 58.4703
227.318, 57.3676
231.714, 56.8951
236.108, 56.9401
240.792, 57.5514
244.184, 58.5378
248.394, 59.8429
251.15, 60.9777
254.28, 62.4404
256.404, 64.1281
257.398, 65.7837
259.089, 67.6214
261.267, 69.6574
264.148, 70.8093
272.071, 68.484
273.836, 67.2464
275.6, 66.0987
277.659, 64.7898
279.131, 63.4771
281.423, 62.2507
285.296, 61.2831
289.692, 60.9456
294.087, 60.7205
298.483, 60.4055
302.881, 59.7754
307.279, 59.0328
311.677, 58.4478
316.072, 58.3127
320.465, 58.3352
324.858, 58.5378
329.25, 58.9428
333.64, 59.6179
338.033, 59.8204
342.424, 60.293
346.815, 60.743
351.208, 61.0356
355.605, 60.428
359.999, 60.563
364.389, 61.1256
369.072, 61.8832
372.737, 61.3112
375.676, 59.7079
380.219, 59.2579
384.615, 58.8978
389.009, 58.8528
392.874, 59.2129
394.713, 60.2986
396.903, 61.5531
399.032, 62.3225
403.059, 60.7655
403.945, 59.5954
405.855, 58.489
410.109, 57.4801
414.506, 57.0301
418.898, 57.2551
423.292, 57.2551
427.688, 57.0526
432.081, 57.1651
436.476, 56.9401
440.871, 56.8951
445.265, 56.8951
449.659, 56.7825
454.054, 56.7375
458.448, 56.7825
462.842, 56.6475
467.235, 56.8501
471.63, 56.6475
476.024, 56.7375
480.418, 56.67
484.812, 56.67
489.206, 56.67
493.6, 56.715
497.114, 56.8951