File: raman/raman_data/MoSSe/x0.000y0.470.csv
100.866, 41.0531
105.258, 41.3681
109.65, 41.7282
114.041, 42.2007
118.435, 42.2232
122.828, 42.3582
127.222, 42.3582
131.615, 42.6058
136.009, 42.6058
140.403, 42.6058
144.797, 42.6283
149.189, 42.9433
153.583, 42.9433
157.978, 42.8758
162.371, 42.8983
166.763, 43.2584
171.157, 43.3934
175.551, 43.3934
179.945, 43.3934
184.337, 43.7309
188.731, 43.7309
193.125, 43.6859
197.521, 43.4384
201.913, 43.7759
206.302, 44.4735
210.694, 44.8561
215.088, 44.9686
219.481, 45.1036
223.878, 44.5635
228.277, 43.8209
232.673, 43.4834
237.065, 43.7309
241.459, 43.7759
245.848, 44.541
250.237, 45.3961
254.625, 46.5663
255.498, 47.4814
258.128, 48.494
259.527, 49.8292
262.652, 51.3819
266.671, 52.8727
271.282, 53.3396
274.803, 52.3195
276.919, 51.1118
278.113, 49.8911
280.096, 48.9441
282.739, 47.7814
287.139, 46.8138
291.538, 45.9587
295.933, 45.8237
300.327, 45.8012
304.723, 45.4861
309.121, 44.7435
313.517, 44.496
317.91, 44.6535
322.303, 44.8561
326.696, 45.0361
331.086, 45.7562
335.478, 46.0937
339.867, 46.8138
344.256, 47.8039
348.643, 48.9516
353.032, 49.7842
357.428, 49.4691
361.821, 49.6942
365.681, 50.7068
367.519, 52.0007
369.051, 53.0133
371.9, 54.2697
375.864, 52.732
378.08, 49.5254
380.284, 48.299
384.683, 47.4364
389.078, 47.3314
392.736, 47.9689
394.773, 50.1817
396.252, 52.642
397.994, 55.3424
400.64, 57.0201
402.942, 55.7324
404.417, 54.101
406.194, 50.763
407.081, 49.4691
407.528, 48.1565
409.294, 46.7125
412.817, 45.4186
417.215, 44.766
421.61, 44.5185
426.005, 44.316
430.4, 44.2935
434.794, 44.226
439.189, 44.046
443.583, 44.0685
447.977, 44.0685
452.373, 43.7984
456.767, 43.7309
461.162, 43.5734
465.557, 43.3709
469.949, 43.7309
474.345, 43.5059
478.739, 43.4159
483.132, 43.5734
487.525, 43.7309
491.919, 43.7309
496.313, 43.7759
498.95, 43.7309