File: raman/raman_data/MoSSe/x0.000y1.000.csv
101.378, 88.1177
108.936, 88.0896
115.967, 88.0614
122.996, 88.2865
130.026, 88.2865
137.057, 88.2865
144.087, 88.2865
151.118, 88.2865
158.148, 88.2865
165.179, 88.2865
172.209, 88.2865
179.24, 88.2865
186.271, 88.2021
193.302, 88.0896
200.331, 88.2162
207.361, 88.2865
214.392, 88.2865
221.422, 88.2865
228.453, 88.2865
234.602, 88.6428
236.616, 89.9967
237.919, 91.8182
238.501, 93.4848
240.777, 95.3909
243.234, 93.6364
244.249, 92.1495
244.696, 90.7618
244.879, 89.6479
249.543, 88.4412
256.575, 88.2865
263.605, 88.2865
270.636, 88.2865
277.666, 88.2865
284.697, 88.2865
291.727, 88.2865
298.757, 88.2865
305.788, 88.2865
312.818, 88.2865
319.849, 88.2865
326.879, 88.2865
333.91, 88.2865
340.94, 88.2865
347.971, 88.2865
355.001, 88.2865
362.032, 88.2865
369.062, 88.2865
376.093, 88.2865
383.123, 88.2302
390.153, 88.2865
397.184, 88.2865
404.214, 88.2865
411.245, 88.2865
418.275, 88.2865
425.306, 88.3146
432.335, 88.5678
439.365, 88.5959
446.397, 88.3849
453.427, 88.3849
460.458, 88.2583
467.49, 88.0614
474.521, 87.8927
481.55, 88.1458
488.581, 88.1177
495.612, 87.9771
499.567, 87.8927