File: raman/raman_data/MoSSe/x0.000y0.000.csv
102.827, 6.6913
107.221, 6.7138
111.615, 6.7138
116.009, 6.7138
120.403, 6.7138
124.796, 6.78131
129.189, 6.98384
133.583, 6.98384
137.976, 7.16386
142.37, 7.16386
146.764, 7.16386
151.158, 7.16386
155.552, 7.16386
159.946, 7.16386
164.34, 7.16386
168.735, 7.16386
173.129, 7.16386
177.523, 7.16386
181.916, 7.23137
186.311, 7.16386
190.705, 7.16386
195.099, 7.16386
199.493, 7.16386
203.887, 7.18636
208.279, 7.4564
212.675, 7.20887
217.068, 7.34388
221.461, 7.43389
225.855, 7.5014
230.249, 7.5014
234.643, 7.5014
239.037, 7.5014
243.431, 7.5014
247.825, 7.5014
252.219, 7.5014
256.613, 7.5014
261.007, 7.54641
265.4, 7.72643
269.795, 7.52391
274.189, 7.52391
278.583, 7.59141
282.977, 7.54641
287.37, 7.79394
291.764, 7.83895
296.158, 7.81644
300.55, 8.19899
304.944, 8.15398
309.34, 7.83895
313.734, 7.83895
318.128, 7.83895
322.522, 7.83895
326.916, 7.83895
331.31, 7.83895
335.704, 7.83895
340.098, 7.83895
344.492, 7.83895
348.886, 7.83895
353.28, 7.83895
357.674, 7.83895
362.067, 8.06397
366.459, 8.37901
375.242, 9.21162
378.971, 10.2017
380.669, 12.8871
382.23, 16.3775
384.422, 17.2339
386.19, 15.6024
387.704, 12.182
387.537, 10.6893
390.182, 9.18911
394.577, 9.0766
397.91, 10.0667
400.054, 11.6644
401.557, 17.5152
402.404, 23.0283
405.198, 25.9762
406.787, 24.8286
408.133, 20.103
410.366, 14.0647
411.265, 10.6143
414.347, 9.58291
418.307, 8.71655
422.701, 8.64905
427.096, 8.46902
431.489, 8.67155
435.882, 8.89658
440.275, 9.0541
444.666, 9.52666
449.056, 10.2017
453.451, 10.1117
457.849, 9.41414
462.244, 9.25662
466.64, 8.96409
471.257, 8.40152
475.434, 7.88395
479.828, 7.83895
484.223, 7.83895
488.617, 7.83895
493.011, 7.83895
497.403, 8.08648
500.478, 8.23274