File: raman/raman_data/MoSSe/x0.000y0.330.csv
100.91, 33.5146
105.305, 33.4921
109.699, 33.4921
114.092, 33.5822
118.485, 33.8297
122.879, 33.8297
127.273, 33.8297
131.667, 33.8297
136.061, 33.8297
140.455, 33.8297
144.849, 33.8297
149.242, 33.9647
153.636, 34.0547
162.423, 34.2347
166.816, 34.2797
171.211, 34.2797
175.605, 34.1672
179.999, 34.2572
184.393, 34.2797
188.787, 34.2797
193.181, 34.2797
197.574, 34.3247
201.967, 34.5273
206.361, 34.6623
210.755, 34.6173
215.149, 34.6173
219.543, 34.6173
223.937, 34.6173
228.331, 34.6173
232.725, 34.6173
237.119, 34.6173
241.513, 34.6173
245.907, 34.6173
250.301, 34.6173
254.694, 34.8873
259.086, 35.1799
263.476, 35.7874
267.864, 36.8676
270.194, 37.4242
272.254, 37.4976
276.215, 36.5019
280.174, 35.7874
284.57, 35.4049
288.966, 35.1348
293.361, 34.9548
297.754, 35.1348
302.148, 35.1799
306.542, 35.1123
310.937, 34.9548
315.331, 34.9548
319.725, 34.9548
324.119, 34.9548
328.513, 34.9548
332.906, 35.1123
337.299, 35.4049
341.693, 35.4049
346.084, 35.8099
350.477, 35.9675
354.867, 36.665
359.256, 37.5652
363.648, 37.8802
368.043, 37.7452
372.434, 38.3302
375.942, 39.4413
376.37, 41.4244
379.819, 42.0593
383.092, 40.4519
384.734, 38.8778
386.498, 37.7227
390.894, 37.3176
395.162, 37.4944
397.478, 38.5553
399.654, 42.1276
401.397, 44.6451
402.688, 45.9091
404.017, 47.3464
406.661, 46.0562
407.994, 43.6747
408.267, 42.0657
409.709, 40.2269
411.728, 38.4588
413.745, 37.0176
418.143, 36.395
422.539, 36.08
426.932, 36.1925
431.326, 36.1925
435.722, 35.99
440.117, 35.8324
444.51, 35.8549
448.904, 35.8549
453.3, 35.6299
457.696, 35.2924
462.092, 34.9548
466.486, 34.9548
470.88, 34.9548
475.274, 34.9548
479.668, 34.9548
484.06, 35.3599
488.453, 35.4049
492.848, 35.4049
496.801, 35.658