File: raman/raman_data/MoSSe/x0.000y0.670.csv
101.869, 69.4966
109.043, 69.9748
116.072, 70.2842
123.102, 70.4108
130.132, 70.4389
137.161, 70.6218
144.192, 70.6218
151.222, 70.6218
158.252, 70.6921
165.282, 70.7624
172.312, 70.8468
179.343, 70.8468
186.374, 70.7905
193.405, 70.6077
200.434, 70.889
205.703, 71.4938
209.652, 72.3995
213.602, 73.2377
218.872, 73.7862
223.492, 72.722
224.594, 72.047
229.432, 71.3719
236.462, 71.3672
242.171, 71.9944
245.681, 72.8345
248.752, 73.7159
252.482, 74.4473
254.895, 75.1786
256.208, 76.06
257.3, 77.0632
259.182, 78.3702
260.8, 79.5948
264.971, 80.1948
269.372, 79.0603
272.891, 78.4603
275.973, 77.457
276.857, 76.5006
279.061, 75.4036
283.899, 74.4848
290.054, 73.9128
297.085, 73.8706
303.24, 73.3221
309.397, 72.3939
316.429, 72.0985
323.458, 72.3657
330.488, 72.4642
337.515, 73.0408
344.543, 73.5471
351.572, 73.6737
358.604, 73.5049
363.875, 73.7722
367.61, 74.0909
370.903, 74.166
376.182, 73.1721
382.337, 72.5486
389.369, 72.3798
394.726, 72.8946
396.607, 73.6364
399.463, 74.4848
401.339, 73.9394
401.932, 73.6364
403.645, 73.1252
408.264, 72.1648
414.858, 71.7188
421.891, 71.3812
428.92, 71.6063
435.949, 71.7328
442.982, 71.3812
450.011, 71.55
457.042, 71.4938
464.071, 71.7328
471.103, 71.5078
478.134, 71.3672
485.164, 71.4656
492.194, 71.6203
497.466, 71.6625