File: raman/raman_data/MoWS2/MoWS2_d.csv
0.12993, 360.752
0.201856, 360.855
0.290023, 360.846
0.419954, 362.72
0.531323, 362.152
0.610209, 361.032
0.658933, 361.693
0.772622, 361.459
0.881671, 360.669