File: raman/raman_data/MoWS2/MoWS2_A1.csv
0, 402.656
0.12761, 403.53
0.199536, 404.3
0.287703, 405.957
0.419954, 407.609
0.529002, 409.263
0.610209, 412.699
0.658933, 412.693
0.770302, 414.348
0.87935, 414.78
1, 417.767