File: raman/raman_data/MoWS2/MoWS2_MoS2_E1.csv
0.00232019, 384.655
0.132251, 383.974
0.199536, 383.522
0.287703, 382.179
0.419954, 381.72
0.529002, 381.486
0.610209, 380.254
0.661253, 378.36
0.767981, 373.904
0.87935, 372.447