File: raman/raman_data/MoWS2/MoWS2_WS2_E1.csv
0.199536, 348.633
0.290023, 351.734
0.419954, 352.387
0.529002, 352.708
0.610209, 352.921
0.661253, 353.36
0.767981, 354.459
0.87935, 353.669
1, 354.878