File: raman/raman_data/MoWS2/x0.000y0.000.csv
102.559, 81.3119
107.159, 81.2901
111.76, 81.2901
116.36, 81.3336
120.96, 81.3988
125.56, 81.3988
130.16, 81.3988
134.76, 81.4423
139.361, 81.5076
143.961, 81.5076
148.561, 81.5076
153.161, 81.5076
157.761, 81.5076
162.362, 81.5076
166.962, 81.5076
171.562, 81.5076
176.162, 81.5076
180.762, 81.5076
185.362, 81.5076
189.963, 81.6163
194.563, 81.5945
199.163, 81.5076
203.763, 81.5076
208.363, 81.551
212.964, 81.5945
217.564, 81.5945
222.164, 81.6163
226.764, 81.6598
231.364, 81.6598
235.965, 81.6163
240.565, 81.6163
245.165, 81.6163
249.765, 81.6163
254.365, 81.6163
258.965, 81.6163
263.566, 81.6815
268.166, 81.725
272.766, 81.725
277.366, 81.725
281.966, 81.725
286.567, 81.725
291.167, 81.8337
295.767, 81.8337
300.367, 81.9207
304.967, 81.8989
309.567, 81.8554
314.168, 81.8337
318.768, 81.8337
323.368, 81.8337
327.968, 81.8337
332.568, 81.8337
337.169, 81.8337
341.769, 81.8337
346.369, 81.8337
350.969, 81.8772
355.569, 81.8989
360.17, 81.9424
364.77, 82.0511
369.37, 82.2033
373.97, 82.4425
378.57, 82.7251
381.79, 83.9807
382.864, 85.6385
383.17, 86.9431
383.547, 89.2462
384.017, 90.747
385.193, 92.5813
386.604, 91.0805
387.771, 88.465
387.771, 87.3779
387.771, 86.2908
388.231, 85.1493
388.691, 84.0079
391.451, 82.6599
395.131, 83.2107
397.278, 84.4065
398.351, 85.7473
398.811, 86.7256
399.731, 89.1173
400.651, 91.2915
400.952, 93.8597
401.449, 95.2648
402.599, 96.7501
404.951, 94.8047
405.251, 93.4657
405.251, 92.3786
405.711, 91.0016
406.478, 88.0845
407.091, 86.9431
407.551, 85.9103
408.471, 84.7689
410.312, 83.4915
414.452, 82.6164
419.052, 82.2903
423.652, 82.2685
428.252, 82.2903
432.852, 82.4642
437.453, 82.6164
442.053, 82.8338
446.653, 83.0078
451.253, 82.9643
455.853, 82.5947
460.454, 82.2685
465.054, 82.0076
469.654, 81.8337
474.254, 81.7467
477.934, 81.6887