File: raman/raman_data/MoWS2/x0.200y0.000.csv
103.264, 65.3912
106.943, 65.3885
110.623, 65.413
114.302, 65.4103
117.981, 65.4076
121.66, 65.4049
125.339, 65.4023
129.018, 65.3996
132.698, 65.4512
136.376, 65.3942
140.056, 65.4729
143.736, 65.6059
147.415, 65.6032
151.094, 65.6005
154.773, 65.5978
158.452, 65.5952
162.131, 65.5654
165.81, 65.5627
169.489, 65.5329
173.169, 65.5573
176.848, 65.6089
180.527, 65.6605
184.206, 65.6307
187.886, 65.6551
191.565, 65.6796
195.244, 65.6769
198.923, 65.6742
202.602, 65.6716
206.282, 65.7774
209.961, 65.8018
213.64, 65.8534
217.32, 65.8507
220.998, 65.7667
224.677, 65.7369
228.356, 65.6528
232.035, 65.6502
235.714, 65.6204
239.393, 65.5906
243.072, 65.5337
246.751, 65.5852
250.43, 65.6097
254.109, 65.607
257.789, 65.6314
261.467, 65.5745
265.147, 65.599
268.826, 65.6234
272.505, 65.6207
276.184, 65.6181
279.863, 65.6154
283.542, 65.6127
287.221, 65.61
290.901, 65.6345
294.58, 65.7403
298.26, 65.7648
301.939, 65.8163
305.618, 65.7865
309.297, 65.7567
312.976, 65.7541
316.655, 65.7243
320.334, 65.6402
324.013, 65.6647
327.692, 65.5806
331.372, 65.7407
335.051, 65.738
338.73, 65.7625
342.41, 65.8683
346.09, 66.1097
349.77, 66.2155
357.129, 66.3729
360.808, 66.4245
364.487, 66.3947
368.166, 66.3649
371.845, 66.4165
375.526, 66.6308
379.3, 67.1705
381.053, 68.1457
381.522, 69.8813
382.148, 71.024
382.527, 71.9956
385.219, 73.1334
386.131, 71.8308
387.033, 68.5392
387.946, 67.2456
390.241, 66.3489
393.921, 66.5903
396.961, 67.3747
398.991, 68.5938
400.147, 69.8135
400.843, 70.9522
401.77, 72.2263
402.39, 73.5549
403.624, 74.9102
405.472, 76.482
406.382, 74.7455
407.295, 73.4429
407.745, 71.5439
409.115, 69.7798
410.718, 68.6395
412.323, 67.8246
415.997, 66.8726
419.674, 66.3275
423.352, 66.2163
427.031, 66.2679
430.71, 66.2381
434.39, 66.3168
438.069, 66.2327
441.748, 66.23
445.426, 66.146
449.105, 66.0077
452.783, 65.9237
456.461, 65.6769
460.14, 65.62
463.818, 65.4817
467.497, 65.4519
471.176, 65.4492
474.856, 65.4736
478.075, 65.4713