File: raman/raman_data/MoWS2/x0.420y0.000.csv
102.719, 49.4483
107.318, 49.4667
111.916, 49.4633
116.515, 49.46
121.114, 49.4566
125.713, 49.4533
130.312, 49.4933
134.912, 49.6202
139.511, 49.6602
144.11, 49.6569
148.709, 49.6536
153.308, 49.7153
157.906, 49.6469
162.506, 49.7086
167.105, 49.7704
171.704, 49.8538
176.303, 49.8505
180.902, 49.8471
185.501, 49.8438
190.1, 49.8405
194.7, 50.0324
199.299, 50.0725
203.897, 50.0474
208.497, 50.2177
213.096, 50.1492
217.694, 50.0374
222.293, 49.9472
226.891, 49.8137
231.489, 49.7019
236.087, 49.59
240.686, 49.5867
245.285, 49.5834
249.884, 49.58
254.483, 49.5767
259.082, 49.595
263.682, 49.787
268.281, 49.7836
272.879, 49.7803
277.478, 49.7769
282.077, 49.7736
286.676, 49.7702
291.275, 49.832
295.875, 49.9805
300.474, 49.9989
305.073, 49.9739
309.672, 49.9705
314.27, 49.9238
318.869, 49.9638
323.468, 49.9605
328.067, 49.9571
332.666, 49.9538
337.265, 50.0373
341.866, 50.3594
346.468, 50.9636
350.609, 51.2427
355.667, 51.1956
360.265, 51.0187
364.864, 50.9502
369.462, 50.8601
374.063, 51.2256
377.286, 51.9285
379.59, 52.849
382.201, 53.697
383.956, 52.2763
385.101, 51.2719
387.856, 50.4995
392.454, 50.4311
396.596, 50.8567
399.819, 51.7132
401.358, 52.6886
402.587, 53.2663
403.512, 54.1607
404.438, 55.3625
405.363, 56.3745
406.977, 57.1147
410.268, 56.2986
411.795, 55.2125
413.629, 54.072
415.462, 52.8772
417.295, 51.7096
420.049, 50.7365
424.647, 50.4294
429.245, 50.3176
433.844, 50.3142
438.442, 50.1373
443.04, 50.0688
447.638, 49.9353
452.237, 49.8669
456.835, 49.6899
461.434, 49.6432
466.032, 49.6399
470.631, 49.6365
475.23, 49.6332
480.059, 49.6297