File: raman/raman_data/MoWS2/x0.530y0.000.csv
101.757, 41.6374
106.354, 41.4388
110.953, 41.4354
115.552, 41.4321
120.152, 41.5589
124.751, 41.6424
129.35, 41.639
133.949, 41.6357
138.548, 41.7409
143.148, 41.8026
147.747, 41.8427
152.346, 41.8393
156.944, 41.836
161.543, 41.8326
166.142, 41.8293
170.742, 41.9778
175.341, 41.9528
179.939, 41.9277
184.539, 41.9678
189.138, 42.0296
193.737, 42.1564
198.337, 42.2399
202.936, 42.2365
207.534, 42.2332
212.133, 42.2298
216.732, 42.2048
221.33, 42.0278
225.928, 41.9377
230.527, 41.8042
235.125, 41.7791
239.724, 41.7758
244.323, 41.7724
248.922, 41.7691
253.521, 41.7658
258.12, 41.7624
262.719, 41.8025
267.318, 41.8642
271.917, 41.8609
276.516, 41.8575
281.115, 41.8759
285.714, 41.9593
290.313, 41.956
294.912, 41.9527
299.512, 42.1229
304.111, 42.1196
308.709, 42.0511
313.308, 42.0478
317.907, 42.0444
322.506, 42.1279
327.105, 42.1245
331.704, 42.1429
336.303, 42.183
340.903, 42.4183
345.505, 42.9791
350.107, 43.4748
353.537, 43.4791
356.775, 43.3724
361.143, 43.2064
365.741, 43.138
370.34, 43.113
374.941, 43.4785
378.625, 44.3148
380.509, 44.8731
382.009, 45.2254
383.877, 44.5173
384.601, 43.8404
386.894, 42.7971
391.492, 42.5334
396.092, 42.8121
399.775, 43.4677
402.539, 44.3969
404.849, 46.2668
405.927, 47.2967
407.492, 48.2992
409.742, 48.8277
412.217, 48.1058
414.051, 47.0738
416.647, 45.119
417.867, 44.0332
420.467, 43.0006
424.604, 42.5527
429.203, 42.4626
433.801, 42.3074
438.399, 42.2823
442.997, 42.1054
447.596, 42.0586
452.194, 41.9468
456.792, 41.835
461.391, 41.8316
465.99, 41.8283
470.589, 41.8249
475.188, 41.8216
480.131, 41.6553