File: raman/raman_data/MoWS2/x0.610y0.000.csv
103.094, 33.8465
106.773, 33.8439
110.452, 33.8412
114.132, 33.8385
117.811, 33.8358
121.49, 33.8332
125.169, 33.8305
128.848, 33.9092
132.529, 34.0964
136.207, 34.0123
139.886, 34.0368
143.566, 34.1426
147.245, 34.167
150.925, 34.1915
154.604, 34.2431
158.282, 34.1048
161.962, 34.2106
165.641, 34.235
169.321, 34.4222
173.001, 34.4467
176.679, 34.2541
180.358, 34.2243
184.037, 34.2217
187.717, 34.3817
191.397, 34.5689
195.078, 34.8375
198.756, 34.7534
202.435, 34.6423
206.114, 34.6396
209.793, 34.6369
213.471, 34.4715
217.15, 34.3603
220.828, 34.1949
224.507, 34.1922
228.186, 34.1896
231.865, 34.1869
235.544, 34.1842
239.223, 34.1815
242.903, 34.1789
246.582, 34.1762
250.261, 34.1735
253.94, 34.1708
257.619, 34.1682
261.298, 34.1655
264.977, 34.1628
268.656, 34.1601
272.336, 34.2388
276.015, 34.2633
279.695, 34.3691
283.374, 34.3393
287.053, 34.3638
290.732, 34.3611
294.412, 34.5211
298.091, 34.5727
301.771, 34.57
305.45, 34.5674
309.129, 34.5647
312.808, 34.562
316.487, 34.5593
320.166, 34.5567
323.845, 34.554
327.524, 34.5513
331.204, 34.6843
334.884, 34.763
338.563, 34.8417
342.244, 35.2187
345.927, 35.8128
349.608, 36.3254
352.37, 36.7031
356.966, 36.1845
360.643, 35.8834
364.356, 35.7846
368.001, 35.7425
371.681, 35.9025
375.362, 36.3338
379.044, 36.8465
383.178, 35.9575
384.554, 35.2151
388.232, 34.9683
391.912, 35.1284
395.592, 35.3155
398.814, 35.9099
402.038, 36.8027
404.343, 37.8317
406.189, 38.9695
408.494, 40.0528
413.097, 40.7275
415.391, 39.6681
416.305, 38.6457
417.22, 37.7409
418.134, 36.6915
420.427, 35.5687
424.103, 34.9965
427.782, 34.8853
431.46, 34.6927
435.139, 34.6901
438.817, 34.4975
442.496, 34.4677
446.175, 34.4651
449.854, 34.3539
453.532, 34.2427
457.211, 34.24
460.891, 34.2374
464.57, 34.2347
468.249, 34.232
471.928, 34.2565
475.608, 34.3623