File: raman/raman_data/MoWS2/x0.770y0.000.csv
103.479, 18.3904
108.079, 18.2817
112.68, 18.347
117.28, 18.3687
121.88, 18.3904
126.48, 18.4557
131.08, 18.6513
135.68, 18.847
140.281, 18.9122
144.881, 19.2384
149.481, 19.4558
154.081, 19.2166
158.681, 19.1079
163.282, 19.2166
167.882, 19.6515
172.482, 20.1515
177.082, 19.7384
181.682, 19.2384
186.283, 19.2166
190.883, 19.7167
195.483, 20.4777
200.083, 20.2602
204.683, 19.7819
209.283, 19.8037
213.884, 19.6732
218.484, 19.3253
223.084, 19.1079
227.684, 19.1297
232.284, 19.1297
236.885, 19.1514
241.485, 19.1079
246.085, 19.1079
250.685, 19.1079
255.285, 19.1079
259.885, 19.1514
264.486, 19.3036
269.086, 19.3253
273.686, 19.3253
278.286, 19.3471
282.886, 19.3688
287.487, 19.521
292.087, 19.7167
296.687, 19.8689
301.287, 20.0211
305.887, 20.0428
310.488, 20.1081
315.088, 20.1733
319.688, 20.282
324.288, 20.4342
328.888, 20.4777
333.488, 20.6951
338.089, 21.0864
342.229, 21.9072
346.369, 23.0867
350.969, 23.9999
354.599, 24.6196
356.94, 23.5131
359.249, 22.6736
363.85, 22.304
368.45, 22.391
372.742, 22.9599
377.344, 22.6591
380.936, 21.8534
385.033, 21.1618
388.545, 21.4385
391.451, 21.8257
396.051, 22.2605
400.651, 22.7171
404.331, 23.71
406.631, 24.9783
408.931, 26.3553
410.312, 27.6417
411.232, 28.8375
412.152, 30.0333
413.992, 31.3922
416.292, 32.3706
417.212, 31.2835
417.212, 30.1964
417.212, 29.1093
418.132, 26.9351
418.592, 25.6305
419.665, 23.3476
421.812, 21.9706
425.492, 21.0864
430.092, 20.6733
434.693, 20.4124
439.293, 20.282
443.893, 20.1298
448.493, 19.9993
453.093, 19.9776
457.693, 19.9776
462.294, 19.9776
466.894, 19.9776
471.494, 19.9993
476.094, 20.1298