File: raman/raman_data/MoWS2/x1.000y0.000.csv
102.925, 2.38324
106.604, 2.35345
110.282, 2.18803
113.961, 2.18536
117.64, 2.15556
121.319, 2.15288
124.998, 2.17733
128.678, 2.25603
132.357, 2.28048
136.036, 2.25068
139.716, 2.3565
143.395, 2.35382
147.074, 2.35115
150.752, 2.23998
154.431, 2.18306
158.111, 2.28888
161.79, 2.34045
165.47, 2.50051
169.151, 2.76908
172.831, 2.98339
176.51, 2.87222
180.187, 2.57119
183.866, 2.51426
187.545, 2.53871
191.225, 2.61741
194.903, 2.45199
198.581, 2.3137
202.26, 2.31103
205.939, 2.30835
209.619, 2.38705
213.299, 2.46574
216.977, 2.30033
220.656, 2.32478
224.336, 2.51197
228.017, 2.8619
231.696, 2.75073
235.374, 2.53107
239.052, 2.44702
242.731, 2.2816
246.41, 2.27893
250.089, 2.27625
253.768, 2.3007
257.448, 2.48789
261.127, 2.53947
264.807, 2.53679
268.486, 2.50699
272.164, 2.47719
275.844, 2.47452
279.523, 2.58034
283.203, 2.65903
286.882, 2.71061
290.563, 3.00629
294.244, 3.43759
297.923, 3.2993
301.6, 2.97114
308.962, 3.61676
316.325, 4.47936
320.007, 5.10053
323.687, 5.20635
327.364, 4.87819
331.043, 4.82127
334.725, 5.44243
337.95, 6.33517
340.715, 7.38194
342.253, 8.35727
344.87, 10.4529
345.795, 11.3745
346.877, 13.0553
346.259, 12.1878
347.804, 14.3807
348.73, 15.465
349.656, 16.6336
352.265, 17.2285
354.554, 15.3281
355.927, 14.0795
356.99, 12.18
357.29, 10.9502
357.74, 9.14164
358.648, 7.02534
359.716, 6.06619
360.936, 4.82666
364.15, 3.84787
367.827, 3.41122
371.505, 3.24581
375.183, 3.05327
378.862, 3.05059
382.541, 3.04792
386.219, 2.90962
389.898, 2.82558
393.578, 2.87715
397.257, 2.87448
400.936, 2.84468
404.615, 2.9505
408.296, 3.27331
411.058, 3.7324
413.055, 4.58082
415.213, 6.71298
417.981, 8.22989
419.504, 6.4567
420.417, 5.22644
421.637, 4.05019
424.851, 3.12565
428.529, 2.82462
432.208, 2.79482
435.887, 2.79214
439.566, 2.78947
443.245, 2.7868
446.924, 2.78412
450.603, 2.78145
454.282, 2.77877
457.962, 2.7761
461.641, 2.77342
465.32, 2.77075
468.999, 2.82232
472.679, 2.90102
476.358, 2.97971