File: raman/raman_data/WSSe/x1.000y0.500.csv
100.965, 30.6533
103.44, 30.7452
105.916, 30.9106
108.391, 30.929
110.866, 30.929
113.341, 30.929
115.816, 30.929
118.291, 30.929
120.766, 30.9658
123.241, 30.929
125.716, 30.929
128.191, 30.929
130.665, 30.8922
133.14, 30.8371
135.615, 30.8922
138.091, 30.9474
140.566, 31.1864
143.042, 31.3886
145.518, 31.5908
147.993, 31.7379
150.468, 31.7747
152.82, 31.8022
155.418, 31.5725
157.892, 31.3151
160.366, 30.929
162.839, 30.6165
165.314, 30.3959
167.788, 30.2856
170.263, 30.2856
172.738, 30.2856
175.213, 30.2856
177.688, 30.2488
180.163, 30.1937
182.638, 30.1937
185.113, 30.1937
187.588, 30.2304
190.063, 30.2856
192.538, 30.2856
195.013, 30.2856
197.488, 30.3223
199.964, 30.3775
202.439, 30.4326
204.914, 30.543
207.389, 30.6533
209.864, 30.6716
212.34, 30.8371
214.815, 30.9474
217.291, 31.1864
219.767, 31.407
222.243, 31.7379
224.719, 31.9401
227.194, 31.9769
229.669, 31.9401
232.144, 31.9401
234.619, 31.9769
237.094, 32.1424
239.57, 32.271
242.046, 32.6203
244.522, 32.988
246.998, 33.3373
249.474, 33.6682
251.951, 34.0359
254.242, 34.5828
255.718, 35.7088
257.334, 36.8119
257.991, 37.5192
258.931, 38.042
260.106, 38.4776
261.513, 38.3905
262.45, 37.9548
263.445, 37.2163
264.334, 36.3706
265.815, 35.4484
268.287, 34.4771
270.76, 33.8521
273.234, 33.5763
275.709, 33.4108
278.184, 33.4108
280.659, 33.4292
283.134, 33.5395
285.609, 33.5947
288.084, 33.5947
290.559, 33.6131
293.034, 33.6866
295.51, 33.8337
297.985, 33.8704
302.935, 33.944
305.41, 33.7601
307.884, 33.4476
310.357, 33.0799
312.831, 32.7674
315.305, 32.4549
317.779, 32.1424
320.253, 31.8482
322.727, 31.5908
325.201, 31.3702
327.676, 31.2967
330.151, 31.2967
332.626, 31.2232
335.101, 31.2967
337.576, 31.2967
340.051, 31.3151
342.527, 31.5357
345.002, 31.6644
347.478, 31.9401
349.954, 32.1791
352.43, 32.3446
354.905, 32.5468
357.38, 32.5836
359.855, 32.4733
362.329, 32.1975
364.803, 31.9769
367.278, 31.7747
369.752, 31.5908
372.227, 31.5725
374.703, 31.8298
377.179, 32.1975
379.656, 32.6203
383.121, 32.6387
385.595, 32.3997
388.069, 32.1791
390.543, 31.9769
393.018, 31.9401
395.493, 31.9401
397.969, 32.1056
400.446, 32.7123
403.006, 33.5334
404.906, 34.3484
407.506, 34.6211
409.855, 33.9807
412.03, 33.0432
413.315, 32.4181
415.788, 31.9217
418.262, 31.5541
420.736, 31.3151
423.21, 31.1496
425.685, 30.929
428.16, 30.929
430.634, 30.8003
433.109, 30.7452
435.584, 30.69
438.059, 30.6533
440.533, 30.5981
443.008, 30.5613
445.483, 30.543
447.958, 30.4143
449.938, 30.3775