File: raman/raman_data/WSSe/x1.000y0.700.csv
101.239, 38.497
104.209, 38.543
107.179, 38.6502
110.149, 38.6502
113.119, 38.6809
116.09, 38.7422
119.059, 38.6809
122.029, 38.589
124.999, 38.5583
127.969, 38.5124
130.939, 38.543
133.909, 38.6043
136.88, 38.8034
139.85, 38.88
142.82, 38.926
145.789, 38.7422
148.759, 38.7422
151.729, 38.5124
154.698, 38.3898
157.668, 38.1906
160.638, 38.1906
163.608, 38.1906
166.577, 38.1447
169.547, 38.0681
172.517, 38.0068
175.487, 38.0068
178.457, 37.9149
181.427, 37.8996
184.397, 37.9302
187.367, 38.0068
190.337, 38.0068
193.307, 38.0068
196.277, 38.0834
199.247, 38.1906
202.217, 38.1906
205.187, 38.1906
208.158, 38.2213
211.128, 38.4051
214.098, 38.497
217.069, 38.7422
220.04, 39.0179
223.012, 39.4469
225.983, 39.7992
228.952, 39.692
231.922, 39.4775
234.892, 39.4775
237.862, 39.692
240.833, 39.8758
243.804, 40.1669
246.776, 40.6265
249.747, 41.1321
251.906, 41.8018
253.324, 42.7997
254.261, 43.8529
255.056, 44.7721
256.28, 45.8046
258.215, 46.3977
260.158, 45.728
260.699, 44.8088
261.142, 44.0735
262.306, 43.0755
263.61, 42.0972
265.058, 41.3422
267.884, 40.6593
271.029, 40.3048
273.999, 40.2129
276.969, 40.2282
279.94, 40.3967
282.91, 40.4274
285.88, 40.4274
289.344, 40.3661
292.314, 40.1669
295.283, 39.9524
298.253, 39.7992
301.222, 39.5388
304.191, 39.3703
307.16, 39.1252
310.129, 38.8188
313.099, 38.6196
316.068, 38.4511
319.038, 38.3745
322.008, 38.3745
324.978, 38.3745
327.948, 38.3745
330.918, 38.3898
333.888, 38.4664
336.858, 38.5277
339.828, 38.5583
342.799, 38.6962
345.769, 38.8034
348.739, 38.926
351.71, 39.0945
354.68, 39.2018
357.65, 39.2018
360.62, 39.0486
363.589, 38.8188
366.559, 38.7422
369.529, 38.7422
372.499, 38.8034
375.47, 39.0945
377.946, 39.4086
381.411, 39.4775
384.38, 39.263
387.35, 39.0639
390.319, 38.8954
393.289, 38.7422
396.259, 38.7422
399.229, 38.926
401.953, 39.2385
406.16, 39.2784
409.129, 38.9107
412.098, 38.589
415.067, 38.3592
418.037, 38.1906
421.007, 38.1906
423.976, 38.0681
426.946, 38.0221
429.916, 38.0068
432.886, 38.0068
435.856, 38.0068
438.826, 37.8689
441.795, 37.823
444.765, 37.823
447.735, 37.823
449.715, 37.823