File: raman/raman_data/WSSe/x1.000y0.000.csv
100.893, 9.36735
104.358, 9.28856
107.822, 9.23604
111.288, 9.27543
114.753, 9.34109
118.217, 9.24917
121.682, 9.23604
125.147, 9.23604
128.612, 9.23604
132.077, 9.23604
135.542, 9.23604
139.008, 9.39361
142.473, 9.56432
145.939, 9.78755
149.404, 9.69563
152.869, 9.74816
156.335, 9.932
159.8, 10.1552
163.267, 10.6148
166.487, 11.4115
169.46, 12.3
171.443, 13.0967
174.168, 13.832
176.723, 13.3111
177.925, 12.3245
179.975, 11.2812
183.562, 10.6411
187.026, 10.3785
190.493, 10.93
193.958, 10.8512
197.42, 10.1421
200.885, 9.97139
204.35, 9.95826
207.814, 9.87947
211.279, 9.94513
214.744, 9.94513
218.209, 9.76129
221.674, 9.69563
225.139, 9.932
228.607, 10.6017
232.072, 10.733
235.535, 10.1421
238.999, 9.70876
242.463, 9.43301
245.927, 9.2623
249.392, 9.23604
252.857, 9.30169
256.323, 9.51179
259.788, 9.65624
263.254, 9.74816
266.718, 9.69563
270.183, 9.6825
273.649, 9.80068
277.114, 9.98452
280.58, 10.2209
284.046, 10.5886
287.513, 11.0744
290.732, 11.6413
293.706, 12.5605
296.182, 12.8669
297.486, 11.8623
299.888, 11.1663
303.354, 11.5078
306.574, 12.2234
309.3, 13.0599
312.025, 13.878
313.548, 14.7643
315.32, 15.8805
317.163, 17.1411
319.217, 18.2625
322.189, 18.7169
325.156, 18.0051
328.125, 17.6664
331.028, 18.5987
332.389, 19.6229
333.911, 20.8179
334.822, 21.9669
335.815, 22.8861
337.306, 24.6172
337.954, 25.8183
338.964, 26.9765
339.9, 28.526
340.79, 30.163
341.787, 32.2618
343.032, 34.4832
344.429, 37.8597
345.03, 39.7073
345.78, 41.9823
346.33, 43.7242
346.888, 45.5311
347.282, 46.946
347.929, 48.0996
349.523, 51.0594
351.498, 49.5197
352.086, 47.9709
352.727, 47.0379
352.971, 46.0344
353.215, 45.1076
353.707, 44.0505
353.95, 42.8326
354.045, 41.6468
354.56, 40.1669
354.678, 38.4434
355.02, 37.1979
355.413, 36.291
355.41, 35.3718
355.655, 34.5139
355.615, 33.424
356.14, 31.6873
356.384, 30.7145
356.629, 29.826
356.626, 28.9068
356.746, 27.8038
357.46, 26.7191
357.357, 25.5058
357.23, 24.6325
357.72, 23.1159
358.333, 21.4
358.821, 19.5616
359.063, 17.6696
360.047, 15.9462
361.033, 14.7665
362.69, 13.4381
364.639, 12.5451
367.705, 11.6785
371.167, 10.8775
374.631, 10.5229
378.095, 10.3391
381.56, 10.3916
385.025, 10.2603
388.488, 9.77442
391.953, 9.64311
395.418, 9.81381
398.884, 9.932
402.349, 9.94513
405.814, 10.0239
409.281, 10.4966
411.688, 11.2714
414.042, 13.354
414.987, 14.6593
416.301, 16.1694
417.773, 17.1888
419.445, 15.5478
420.183, 14.0158
420.773, 12.8393
421.577, 11.7791
422.647, 10.7619
424.789, 10.048
428.088, 9.65624
431.552, 9.41987
435.016, 9.20977
438.481, 9.06533
441.945, 8.96028
445.41, 8.96028
449.061, 8.85687
450.854, 8.5926