File: raman/raman_data/WSSe/x1.000y0.300.csv
100.932, 21.0385
103.407, 21.0936
105.882, 21.0936
108.357, 21.0936
110.832, 21.0936
113.307, 21.0936
115.783, 21.1304
118.258, 21.1856
120.732, 21.112
123.207, 21.0936
125.682, 21.0936
128.157, 21.0936
130.632, 21.0936
133.107, 21.0385
135.582, 21.0017
138.057, 20.9098
140.532, 20.965
143.007, 21.0936
145.483, 21.3142
147.959, 21.59
150.435, 21.9577
152.912, 22.3621
155.388, 22.7666
157.863, 22.8953
160.338, 22.8401
162.689, 22.6103
165.286, 22.1599
167.264, 21.5716
169.737, 21.1304
172.211, 20.7995
174.686, 20.6524
177.161, 20.634
179.636, 20.634
182.111, 20.634
184.586, 20.634
187.061, 20.6892
189.536, 20.726
192.011, 20.7627
194.486, 20.8179
196.961, 20.8179
199.436, 20.8546
201.912, 20.965
204.387, 21.0017
206.862, 21.0201
209.337, 21.0936
211.812, 21.1672
214.288, 21.4062
216.763, 21.4981
219.239, 21.6268
221.714, 21.7371
224.189, 21.7371
226.664, 21.7738
229.14, 21.8658
231.615, 21.9209
234.09, 22.0312
236.565, 22.1048
239.041, 22.2886
241.517, 22.5092
243.993, 22.7482
246.468, 22.9688
248.944, 23.1159
251.42, 23.3916
253.896, 23.6306
256.373, 24.2557
258.664, 24.9772
260.222, 25.7215
261.913, 26.2233
263.803, 25.9838
266.276, 25.3955
267.883, 24.7934
270.233, 24.4395
272.708, 24.2373
275.183, 24.274
277.658, 24.366
280.133, 24.4211
282.608, 24.4947
285.084, 24.5498
287.559, 24.6601
290.034, 24.6785
292.509, 24.752
294.985, 24.9726
297.461, 25.23
299.937, 25.5609
302.413, 25.9286
304.889, 26.2963
307.366, 26.6823
309.842, 27.0132
312.318, 27.3074
314.794, 27.528
317.269, 27.6935
319.744, 27.7854
322.219, 27.6567
324.693, 27.3442
327.166, 26.811
329.639, 26.1492
332.181, 25.1644
334.088, 24.4027
336.56, 23.6306
339.033, 22.9504
341.507, 22.6747
343.982, 22.693
346.458, 23.0423
348.935, 23.5387
351.411, 23.888
353.887, 24.0351
356.362, 24.0351
358.836, 23.9983
361.311, 23.7409
363.784, 23.3916
366.258, 23.0423
368.733, 22.8401
371.207, 22.7482
373.682, 22.7482
376.158, 22.8585
378.633, 23.1159
381.109, 23.3916
383.585, 23.4713
386.059, 23.2262
388.533, 22.9872
391.007, 22.785
393.482, 22.7666
395.958, 22.932
398.434, 23.2078
401.076, 23.9125
403.177, 24.7048
404.382, 25.7631
405.871, 26.7773
407.36, 27.9263
408.848, 28.8761
410.335, 29.4813
412.935, 28.7327
413.795, 27.957
414.039, 27.1603
415.472, 26.1492
416.507, 25.0921
417.812, 24.1007
420.214, 23.3549
422.688, 22.9504
425.162, 22.7298
427.636, 22.546
430.111, 22.3437
432.585, 22.1048
435.059, 21.9209
437.534, 21.7371
440.008, 21.6819
442.483, 21.59
444.958, 21.5532
447.433, 21.5165
449.66, 21.4613