File: raman/raman_data/WSSe/x1.000y1.000.csv
101.024, 48.1179
103.499, 48.265
105.975, 48.504
108.451, 48.6695
110.926, 48.7246
113.401, 48.6695
115.876, 48.6695
118.351, 48.6695
120.826, 48.6695
123.301, 48.6878
125.776, 48.8533
128.252, 49.0739
130.728, 49.4232
132.708, 49.4967
135.679, 49.7357
138.153, 49.4048
140.627, 49.0188
143.1, 48.5592
145.574, 48.265
148.048, 48.0076
150.523, 47.787
152.997, 47.7135
155.472, 47.6583
157.947, 47.64
160.422, 47.5113
162.896, 47.401
165.371, 47.3826
167.846, 47.3826
170.321, 47.3826
172.796, 47.3826
175.271, 47.3826
177.746, 47.3826
180.221, 47.2723
182.696, 47.3826
185.171, 47.3826
187.646, 47.3826
190.121, 47.3826
192.596, 47.3826
195.071, 47.401
197.546, 47.4745
200.022, 47.64
202.497, 47.6583
204.972, 47.787
207.448, 47.9893
209.924, 48.3202
212.4, 48.6878
214.877, 49.0371
217.353, 49.4232
219.829, 49.8828
222.306, 50.4159
224.783, 51.041
227.261, 51.7763
229.735, 51.6476
232.208, 50.9307
234.683, 50.8939
237.158, 51.0594
239.635, 51.519
242.113, 52.5668
246.496, 55.5328
248.073, 58.2475
249.865, 61.2992
250.923, 64.5846
251.322, 67.6508
251.581, 71.0365
252.35, 78.9569
252.61, 82.6796
253.741, 91.7643
255.219, 85.7589
254.966, 83.9818
255.182, 82.1833
255.077, 80.351
255.319, 78.7501
255.314, 77.2334
255.679, 75.418
255.946, 73.7524
255.792, 72.1595
255.787, 70.6842
255.782, 69.1537
256.122, 67.1894
256.513, 65.8277
256.755, 64.2268
256.601, 62.5064
257.09, 60.7661
257.729, 59.2861
258.218, 57.6316
258.954, 55.8576
259.94, 54.681
262.413, 54.0743
264.887, 53.6699
267.36, 53.1919
269.834, 52.7139
272.307, 52.144
274.78, 51.7028
277.254, 51.28
279.727, 50.802
282.2, 50.2137
284.674, 49.7725
287.147, 49.2394
289.621, 49.0004
292.095, 48.7246
294.57, 48.6143
297.044, 48.3937
299.518, 48.1547
301.993, 48.026
304.468, 47.9525
306.942, 47.64
309.416, 47.548
311.891, 47.4194
314.366, 47.3826
316.841, 47.4745
319.316, 47.4377
321.791, 47.548
324.266, 47.5848
326.741, 47.6216
329.217, 47.6767
331.692, 47.7503
334.168, 47.9709
336.643, 48.026
339.118, 48.0628
341.594, 48.265
344.069, 48.3937
346.544, 48.5592
349.02, 48.6695
351.495, 48.8165
353.971, 48.9268
356.445, 48.7062
358.92, 48.6143
361.394, 48.4856
363.869, 48.4856
366.344, 48.4121
368.82, 48.5959
371.295, 48.743
373.772, 49.1842
376.249, 49.8276
378.725, 50.1769
381.199, 49.9747
383.672, 49.4416
386.146, 49.0923
388.621, 48.9636
391.095, 48.743
393.57, 48.7246
396.045, 48.743
398.52, 48.8165
400.996, 48.9636
403.47, 48.6511
405.943, 48.2282
408.417, 47.9525
410.891, 47.6216
413.365, 47.4194
415.84, 47.3826
418.315, 47.3458
420.79, 47.2171
423.265, 47.1987
425.74, 47.1804
428.214, 47.162
430.69, 47.1804
433.164, 47.0884
435.64, 47.1987
438.114, 47.1436
440.589, 47.1068
443.064, 47.0701
445.539, 47.1436
448.014, 47.0149
449.994, 47.0455