File: raman/raman_data/MoWSe2/MoWSe2_A1.csv
0, 240.426
0.137705, 242.642
0.209836, 243.085
0.327869, 245.745
0.390164, 246.188
0.527869, 246.188
0.727869, 247.074
0.809836, 247.961
0.937705, 249.734
1, 249.734