File: raman/raman_data/MoWSe2/x0.000y1.000.csv
221.066, 80.4482
222.317, 80.4654
223.567, 80.4826
224.818, 80.4999
226.069, 80.5171
227.319, 80.5343
228.57, 80.5515
229.82, 80.5688
231.071, 80.586
232.322, 80.7073
233.572, 80.7505
234.823, 80.9498
236.073, 81.0711
237.324, 81.5565
238.449, 82.6385
239.137, 84.046
239.387, 85.7077
239.925, 87.9911
240.2, 89.4254
240.701, 90.6028
241.326, 89.3109
241.826, 86.4566
242.014, 84.7034
242.326, 83.5155
243.077, 82.0519
244.327, 81.2368
245.578, 81.15
246.828, 80.9331
248.079, 80.9503
249.33, 80.9415
250.58, 80.8547
251.831, 80.898
253.081, 80.9412
254.332, 81.0104
255.583, 80.9496
256.833, 81.0709
258.084, 81.0881
259.334, 81.0793
260.585, 80.9925
261.836, 81.0098
263.086, 81.027
264.337, 81.0442
265.587, 81.0614
266.838, 81.0787
268.089, 81.0959
268.964, 81.1079