File: raman/raman_data/MoWSe2/x0.210y1.000.csv
221.316, 63.6745
222.567, 63.6917
223.817, 63.709
225.068, 63.7262
226.319, 63.7694
227.569, 63.7606
230.07, 64.0552
231.321, 64.0724
233.822, 64.1069
235.073, 64.1241
237.574, 64.2886
238.825, 64.4359
240.075, 64.9473
241.201, 66.0943
242.326, 68.0476
243.002, 68.822
243.444, 67.9328
243.827, 66.8024
244.702, 65.3947
245.828, 64.5584
247.079, 64.3935
248.329, 64.3067
249.58, 64.3239
250.83, 64.3411
252.081, 64.3584
253.332, 64.3756
254.582, 64.3928
255.833, 64.41
257.083, 64.4273
258.334, 64.4445
259.585, 64.4617
260.835, 64.2709
262.086, 64.2361
263.336, 64.2533
264.587, 64.2705
265.838, 64.3138
267.088, 64.305
268.339, 64.4523