File: raman/raman_data/MoWSe2/x0.390y1.000.csv
221.566, 47.2724
223.317, 47.3151
225.068, 47.3392
226.819, 47.3633
228.57, 47.3874
230.321, 47.4116
232.071, 47.4357
233.822, 47.4598
235.573, 47.4839
237.324, 47.4895
239.075, 47.5321
240.826, 47.6677
242.576, 48.0077
243.827, 48.7031
244.327, 49.512
244.702, 50.4059
245.728, 51.3434
246.495, 50.4089
246.912, 49.5909
247.579, 48.8198
248.829, 48.1496
250.58, 47.9136
252.331, 47.7147
254.082, 47.7389
255.833, 47.763
257.584, 47.7871
259.334, 47.8112
261.085, 47.8353
262.836, 47.8594
264.587, 47.8836
266.338, 47.9077
268.089, 47.9318
269.089, 47.9456