File: raman/raman_data/MoWSe2/x0.530y1.000.csv
220.691, 38.8253
221.691, 38.8391
222.692, 38.8529
223.692, 38.8667
224.693, 38.8805
225.693, 38.8942
226.694, 38.908
227.694, 38.9218
228.695, 38.9356
229.695, 38.9494
230.696, 38.9631
231.696, 38.9769
232.697, 38.9907
233.697, 39.0045
234.698, 39.0183
235.698, 39.032
236.699, 39.0458
237.699, 39.0596
238.7, 39.0734
239.7, 39.1847
241.701, 39.4074
242.701, 39.7463
243.702, 40.4103
244.577, 41.7121
245.453, 42.4178
246.203, 41.9729
246.828, 41.0061
247.704, 40.2053
248.704, 39.6989
249.705, 39.5826
250.705, 39.4989
251.706, 39.5126
256.708, 39.3214
257.709, 39.3352
258.709, 39.349
259.71, 39.3628
260.71, 39.3766
261.711, 39.3903
262.711, 39.4041
263.712, 39.4179
264.712, 39.4317
265.712, 39.4455
266.713, 39.4592
267.713, 39.473
268.714, 39.4868