File: raman/raman_data/MoWSe2/x0.730y1.000.csv
220.816, 30.5035
222.067, 30.5207
223.317, 30.538
224.568, 30.5552
225.818, 30.5724
227.069, 30.5896
228.32, 30.6069
229.57, 30.6241
230.821, 30.6413
232.071, 30.6586
233.322, 30.6758
234.573, 30.693
237.074, 30.9876
238.324, 31.0048
239.575, 31.022
240.826, 31.1433
242.076, 31.2385
243.327, 31.6199
244.577, 32.5215
245.578, 33.8359
246.128, 35.4041
247.162, 36.7189
248.017, 35.7553
248.454, 34.5583
248.979, 33.2064
250.08, 32.1551
251.331, 31.7302
252.581, 31.4873
253.832, 31.4005
255.082, 31.3657
256.333, 31.3829
257.584, 31.4001
258.834, 31.4174
260.085, 31.4346
261.335, 31.4518
262.586, 31.391
263.837, 31.3562
265.087, 31.3734
266.338, 31.3907
267.588, 31.4079
268.839, 31.3991