File: raman/raman_data/MoWSe2/x0.810y1.000.csv
221.191, 22.2935
222.692, 22.3359
224.193, 22.3565
225.693, 22.3772
227.194, 22.3979
228.695, 22.4186
230.195, 22.4392
231.696, 22.4816
233.197, 22.5239
234.698, 22.6313
236.198, 22.652
237.699, 22.6726
239.2, 22.9534
240.701, 22.9741
242.201, 23.1682
243.702, 23.7307
244.953, 24.7884
245.578, 26
246.203, 28.0353
246.678, 29.6372
247.516, 30.9363
248.329, 29.8095
248.642, 28.4483
248.954, 27.3471
249.455, 26.0209
249.98, 24.8707
250.955, 23.9824
252.456, 23.4828
253.957, 23.4168
255.458, 23.4375
256.958, 23.3714
258.459, 23.2187
259.96, 23.2394
261.46, 23.26
262.961, 23.2807
264.462, 23.3014
265.963, 23.1486
267.463, 23.0826
268.714, 23.0998