File: raman/raman_data/MoWSe2/x1.000y1.000.csv
221.191, 5.53807
223.192, 5.56563
225.193, 5.5932
227.194, 5.62076
229.195, 5.64832
231.196, 5.67588
233.197, 5.70344
235.198, 5.79603
237.199, 5.88862
239.2, 6.11126
241.201, 6.33391
243.202, 6.45901
245.203, 6.81171
246.203, 7.41074
247.204, 8.62753
247.829, 10.0668
248.204, 11.6976
248.579, 13.4152
249.404, 15.306
250.08, 13.4792
250.33, 12.1821
250.705, 10.464
251.206, 8.94276
251.831, 7.65082
252.706, 6.91507
253.707, 6.79879
254.707, 6.78006
255.708, 6.79384
257.709, 6.95145
259.71, 6.97902
261.711, 6.94155
263.712, 6.4814
266.713, 6.16509
268.589, 6.19093